Data from air1s_HRD10391_14-14-19-951.txt Node
Date: Thu May 02 14:14:19 EDT 2019
User: DAQUser
Spectrometer: HR+D1039
Trigger mode: 0
Integration Time (sec): 1.000000E0
Scans to average: 1
Electric dark correction enabled: true
Nonlinearity correction enabled: false
Boxcar width: 0
XAxis mode: Wavelengths
Number of Pixels in Spectrum: 2048
>>>>>Begin Spectral Data<<<<<
187.836	-31.12
188.309	-31.12
188.782	-31.12
189.255	-16.12
189.728	-46.12
190.201	7.88
190.674	-27.12
191.147	-8.12
191.619	-4.12
192.092	-8.12
192.565	24.88
193.038	5.88
193.511	-6.12
193.984	-3.12
194.456	16.88
194.929	17.88
195.402	50.88
195.874	25.88
196.347	25.88
196.82	21.88
197.292	35.88
197.765	30.88
198.237	69.88
198.71	38.88
199.182	40.88
199.655	43.88
200.127	51.88
200.6	73.88
201.072	55.88
201.544	93.88
202.017	61.88
202.489	67.88
202.961	79.88
203.433	52.88
203.906	54.88
204.378	56.88
204.85	72.88
205.322	69.88
205.794	67.88
206.266	96.88
206.739	76.88
207.211	94.88
207.683	77.88
208.155	82.88
208.627	80.88
209.099	77.88
209.57	74.88
210.042	77.88
210.514	75.88
210.986	80.88
211.458	86.88
211.93	67.88
212.402	86.88
212.873	89.88
213.345	75.88
213.817	58.88
214.288	60.88
214.76	80.88
215.232	62.88
215.703	83.88
216.175	72.88
216.646	75.88
217.118	86.88
217.589	66.88
218.061	70.88
218.532	79.88
219.004	62.88
219.475	60.88
219.946	72.88
220.418	58.88
220.889	70.88
221.36	76.88
221.832	48.88
222.303	54.88
222.774	50.88
223.245	74.88
223.717	74.88
224.188	78.88
224.659	67.88
225.13	71.88
225.601	58.88
226.072	90.88
226.543	80.88
227.014	64.88
227.485	91.88
227.956	96.88
228.427	74.88
228.898	64.88
229.369	73.88
229.839	72.88
230.31	80.88
230.781	60.88
231.252	71.88
231.722	76.88
232.193	62.88
232.664	88.88
233.135	68.88
233.605	73.88
234.076	100.88
234.546	63.88
235.017	74.88
235.487	65.88
235.958	78.88
236.428	52.88
236.899	63.88
237.369	74.88
237.84	96.88
238.31	63.88
238.78	72.88
239.251	81.88
239.721	78.88
240.191	83.88
240.662	76.88
241.132	82.88
241.602	69.88
242.072	75.88
242.542	76.88
243.013	65.88
243.483	64.88
243.953	76.88
244.423	65.88
244.893	56.88
245.363	87.88
245.833	117.88
246.303	76.88
246.773	78.88
247.243	73.88
247.712	68.88
248.182	67.88
248.652	69.88
249.122	62.88
249.592	67.88
250.061	56.88
250.531	60.88
251.001	54.88
251.471	50.88
251.94	68.88
252.41	73.88
252.879	80.88
253.349	69.88
253.818	85.88
254.288	77.88
254.757	77.88
255.227	61.88
255.696	72.88
256.166	88.88
256.635	91.88
257.105	91.88
257.574	83.88
258.043	72.88
258.513	75.88
258.982	78.88
259.451	81.88
259.92	62.88
260.389	82.88
260.859	74.88
261.328	89.88
261.797	80.88
262.266	58.88
262.735	75.88
263.204	96.88
263.673	72.88
264.142	59.88
264.611	84.88
265.08	85.88
265.549	56.88
266.018	65.88
266.487	65.88
266.955	75.88
267.424	60.88
267.893	88.88
268.362	78.88
268.83	73.88
269.299	64.88
269.768	46.88
270.236	63.88
270.705	76.88
271.174	65.88
271.642	73.88
272.111	89.88
272.579	56.88
273.048	72.88
273.516	57.88
273.985	55.88
274.453	110.88
274.922	78.88
275.39	69.88
275.858	58.88
276.327	67.88
276.795	59.88
277.263	72.88
277.731	68.88
278.2	76.88
278.668	78.88
279.136	57.88
279.604	60.88
280.072	61.88
280.54	66.88
281.008	81.88
281.477	49.88
281.945	78.88
282.413	69.88
282.881	83.88
283.348	91.88
283.816	68.88
284.284	90.88
284.752	61.88
285.22	76.88
285.688	78.88
286.156	88.88
286.623	77.88
287.091	72.88
287.559	51.88
288.026	79.88
288.494	93.88
288.962	108.88
289.429	75.88
289.897	75.88
290.364	84.88
290.832	76.88
291.3	69.88
291.767	76.88
292.234	83.88
292.702	102.88
293.169	92.88
293.637	83.88
294.104	105.88
294.571	96.88
295.039	96.88
295.506	88.88
295.973	91.88
296.44	73.88
296.908	80.88
297.375	70.88
297.842	86.88
298.309	61.88
298.776	79.88
299.243	75.88
299.71	55.88
300.177	73.88
300.644	69.88
301.111	77.88
301.578	91.88
302.045	108.88
302.512	70.88
302.979	83.88
303.446	83.88
303.913	87.88
304.379	91.88
304.846	80.88
305.313	120.88
305.78	80.88
306.246	99.88
306.713	103.88
307.18	96.88
307.646	103.88
308.113	96.88
308.579	110.88
309.046	107.88
309.512	113.88
309.979	112.88
310.445	115.88
310.912	99.88
311.378	118.88
311.845	134.88
312.311	122.88
312.777	108.88
313.244	94.88
313.71	127.88
314.176	158.88
314.642	134.88
315.109	105.88
315.575	82.88
316.041	104.88
316.507	83.88
316.973	94.88
317.439	68.88
317.905	72.88
318.371	84.88
318.837	52.88
319.303	87.88
319.769	89.88
320.235	81.88
320.701	72.88
321.167	97.88
321.633	82.88
322.099	66.88
322.564	75.88
323.03	116.88
323.496	88.88
323.962	87.88
324.427	75.88
324.893	86.88
325.359	94.88
325.824	77.88
326.29	85.88
326.755	105.88
327.221	101.88
327.686	89.88
328.152	92.88
328.617	99.88
329.083	84.88
329.548	91.88
330.014	92.88
330.479	109.88
330.944	102.88
331.41	121.88
331.875	139.88
332.34	123.88
332.805	140.88
333.271	130.88
333.736	141.88
334.201	166.88
334.666	173.88
335.131	214.88
335.596	245.88
336.061	224.88
336.526	136.88
336.991	105.88
337.456	112.88
337.921	90.88
338.386	91.88
338.851	78.88
339.316	67.88
339.781	90.88
340.246	103.88
340.711	73.88
341.175	64.88
341.64	92.88
342.105	94.88
342.569	69.88
343.034	74.88
343.499	97.88
343.963	104.88
344.428	75.88
344.893	82.88
345.357	78.88
345.822	76.88
346.286	94.88
346.751	94.88
347.215	126.88
347.679	106.88
348.144	114.88
348.608	117.88
349.073	118.88
349.537	142.88
350.001	126.88
350.465	147.88
350.93	158.88
351.394	150.88
351.858	197.88
352.322	213.88
352.786	217.88
353.25	187.88
353.715	187.88
354.179	176.88
354.643	177.88
355.107	160.88
355.571	219.88
356.035	205.88
356.498	190.88
356.962	134.88
357.426	96.88
357.89	72.88
358.354	89.88
358.818	76.88
359.281	77.88
359.745	81.88
360.209	78.88
360.673	89.88
361.136	82.88
361.6	105.88
362.064	93.88
362.527	83.88
362.991	106.88
363.454	110.88
363.918	88.88
364.381	85.88
364.845	96.88
365.308	98.88
365.772	104.88
366.235	99.88
366.698	82.88
367.162	102.88
367.625	78.88
368.088	77.88
368.552	89.88
369.015	120.88
369.478	124.88
369.941	120.88
370.404	116.88
370.867	111.88
371.331	98.88
371.794	133.88
372.257	110.88
372.72	120.88
373.183	108.88
373.646	136.88
374.109	130.88
374.572	133.88
375.035	144.88
375.497	180.88
375.96	136.88
376.423	132.88
376.886	125.88
377.349	140.88
377.811	126.88
378.274	119.88
378.737	137.88
379.199	157.88
379.662	97.88
380.125	111.88
380.587	89.88
381.05	104.88
381.512	89.88
381.975	76.88
382.437	98.88
382.9	102.88
383.362	108.88
383.825	117.88
384.287	124.88
384.75	148.88
385.212	144.88
385.674	187.88
386.136	186.88
386.599	197.88
387.061	210.88
387.523	211.88
387.985	214.88
388.447	194.88
388.91	212.88
389.372	167.88
389.834	192.88
390.296	213.88
390.758	124.88
391.22	104.88
391.682	97.88
392.144	82.88
392.606	102.88
393.068	100.88
393.529	93.88
393.991	88.88
394.453	108.88
394.915	88.88
395.377	96.88
395.838	82.88
396.3	115.88
396.762	97.88
397.224	121.88
397.685	84.88
398.147	107.88
398.608	101.88
399.07	90.88
399.531	79.88
399.993	94.88
400.454	85.88
400.916	93.88
401.377	104.88
401.839	93.88
402.3	122.88
402.762	98.88
403.223	113.88
403.684	129.88
404.145	114.88
404.607	100.88
405.068	89.88
405.529	105.88
405.99	85.88
406.451	84.88
406.913	76.88
407.374	85.88
407.835	99.88
408.296	75.88
408.757	96.88
409.218	107.88
409.679	87.88
410.14	98.88
410.601	65.88
411.062	72.88
411.522	90.88
411.983	75.88
412.444	99.88
412.905	96.88
413.366	104.88
413.826	86.88
414.287	90.88
414.748	113.88
415.208	85.88
415.669	90.88
416.13	108.88
416.59	109.88
417.051	128.88
417.511	116.88
417.972	112.88
418.432	89.88
418.893	125.88
419.353	117.88
419.814	94.88
420.274	103.88
420.734	109.88
421.195	120.88
421.655	131.88
422.115	144.88
422.576	141.88
423.036	143.88
423.496	134.88
423.956	133.88
424.416	148.88
424.876	134.88
425.336	144.88
425.797	140.88
426.257	126.88
426.717	136.88
427.177	101.88
427.637	83.88
428.097	81.88
428.556	116.88
429.016	80.88
429.476	114.88
429.936	91.88
430.396	113.88
430.856	96.88
431.315	130.88
431.775	100.88
432.235	94.88
432.694	96.88
433.154	91.88
433.614	92.88
434.073	103.88
434.533	67.88
434.993	80.88
435.452	88.88
435.912	68.88
436.371	70.88
436.83	90.88
437.29	84.88
437.749	74.88
438.209	87.88
438.668	92.88
439.127	90.88
439.587	90.88
440.046	67.88
440.505	83.88
440.964	74.88
441.424	73.88
441.883	90.88
442.342	78.88
442.801	103.88
443.26	77.88
443.719	100.88
444.178	94.88
444.637	84.88
445.096	83.88
445.555	112.88
446.014	114.88
446.473	104.88
446.932	99.88
447.391	90.88
447.849	101.88
448.308	99.88
448.767	98.88
449.226	87.88
449.685	86.88
450.143	97.88
450.602	100.88
451.061	88.88
451.519	108.88
451.978	91.88
452.436	107.88
452.895	86.88
453.353	93.88
453.812	93.88
454.27	79.88
454.729	101.88
455.187	80.88
455.646	92.88
456.104	93.88
456.562	74.88
457.021	91.88
457.479	86.88
457.937	96.88
458.395	89.88
458.854	88.88
459.312	87.88
459.77	88.88
460.228	80.88
460.686	90.88
461.144	85.88
461.602	104.88
462.06	95.88
462.518	113.88
462.976	94.88
463.434	96.88
463.892	75.88
464.35	86.88
464.808	98.88
465.266	86.88
465.724	101.88
466.181	86.88
466.639	104.88
467.097	100.88
467.555	114.88
468.012	99.88
468.47	96.88
468.928	93.88
469.385	77.88
469.843	84.88
470.3	104.88
470.758	92.88
471.215	83.88
471.673	80.88
472.13	100.88
472.588	88.88
473.045	73.88
473.503	73.88
473.96	84.88
474.417	101.88
474.875	114.88
475.332	91.88
475.789	103.88
476.246	82.88
476.704	68.88
477.161	91.88
477.618	109.88
478.075	102.88
478.532	94.88
478.989	95.88
479.446	92.88
479.903	103.88
480.36	102.88
480.817	87.88
481.274	94.88
481.731	90.88
482.188	105.88
482.645	105.88
483.102	95.88
483.558	110.88
484.015	109.88
484.472	113.88
484.929	102.88
485.385	102.88
485.842	113.88
486.299	92.88
486.755	96.88
487.212	94.88
487.668	101.88
488.125	91.88
488.582	96.88
489.038	102.88
489.494	100.88
489.951	112.88
490.407	117.88
490.864	136.88
491.32	110.88
491.776	104.88
492.233	97.88
492.689	101.88
493.145	97.88
493.602	86.88
494.058	108.88
494.514	95.88
494.97	89.88
495.426	106.88
495.882	109.88
496.338	94.88
496.794	103.88
497.251	103.88
497.707	103.88
498.163	120.88
498.618	104.88
499.074	102.88
499.53	100.88
499.986	110.88
500.442	106.88
500.898	110.88
501.354	103.88
501.809	89.88
502.265	106.88
502.721	128.88
503.177	106.88
503.632	117.88
504.088	105.88
504.543	106.88
504.999	117.88
505.455	103.88
505.91	104.88
506.366	116.88
506.821	116.88
507.277	121.88
507.732	130.88
508.187	112.88
508.643	80.88
509.098	92.88
509.553	125.88
510.009	111.88
510.464	117.88
510.919	126.88
511.375	130.88
511.83	94.88
512.285	127.88
512.74	128.88
513.195	131.88
513.65	111.88
514.105	122.88
514.56	105.88
515.015	112.88
515.47	132.88
515.925	133.88
516.38	112.88
516.835	128.88
517.29	130.88
517.745	143.88
518.2	121.88
518.655	122.88
519.109	144.88
519.564	126.88
520.019	136.88
520.474	130.88
520.928	152.88
521.383	110.88
521.838	132.88
522.292	136.88
522.747	125.88
523.201	121.88
523.656	135.88
524.11	139.88
524.565	123.88
525.019	132.88
525.474	142.88
525.928	138.88
526.382	112.88
526.837	121.88
527.291	142.88
527.745	122.88
528.2	124.88
528.654	136.88
529.108	158.88
529.562	148.88
530.016	146.88
530.47	140.88
530.925	121.88
531.379	161.88
531.833	142.88
532.287	140.88
532.741	131.88
533.195	133.88
533.649	136.88
534.103	137.88
534.556	146.88
535.01	131.88
535.464	136.88
535.918	122.88
536.372	144.88
536.826	152.88
537.279	123.88
537.733	144.88
538.187	144.88
538.64	133.88
539.094	175.88
539.548	167.88
540.001	147.88
540.455	152.88
540.908	121.88
541.362	141.88
541.815	145.88
542.269	133.88
542.722	151.88
543.175	187.88
543.629	166.88
544.082	152.88
544.536	187.88
544.989	184.88
545.442	176.88
545.895	155.88
546.349	158.88
546.802	159.88
547.255	183.88
547.708	137.88
548.161	126.88
548.614	152.88
549.067	168.88
549.52	137.88
549.973	144.88
550.426	165.88
550.879	161.88
551.332	176.88
551.785	143.88
552.238	143.88
552.691	149.88
553.144	132.88
553.596	140.88
554.049	163.88
554.502	170.88
554.955	169.88
555.407	143.88
555.86	159.88
556.313	127.88
556.765	179.88
557.218	142.88
557.67	144.88
558.123	132.88
558.576	149.88
559.028	137.88
559.48	147.88
559.933	172.88
560.385	172.88
560.838	161.88
561.29	157.88
561.742	165.88
562.195	145.88
562.647	164.88
563.099	176.88
563.551	152.88
564.004	152.88
564.456	184.88
564.908	160.88
565.36	162.88
565.812	177.88
566.264	191.88
566.716	171.88
567.168	171.88
567.62	165.88
568.072	172.88
568.524	165.88
568.976	180.88
569.428	171.88
569.88	179.88
570.332	163.88
570.784	168.88
571.235	170.88
571.687	155.88
572.139	190.88
572.59	123.88
573.042	162.88
573.494	163.88
573.945	170.88
574.397	190.88
574.849	174.88
575.3	189.88
575.752	189.88
576.203	153.88
576.655	168.88
577.106	163.88
577.557	190.88
578.009	182.88
578.46	167.88
578.912	136.88
579.363	171.88
579.814	154.88
580.265	141.88
580.717	154.88
581.168	160.88
581.619	164.88
582.07	165.88
582.521	153.88
582.972	143.88
583.423	170.88
583.875	182.88
584.326	164.88
584.777	156.88
585.227	174.88
585.678	201.88
586.129	186.88
586.58	230.88
587.031	210.88
587.482	251.88
587.933	217.88
588.384	219.88
588.834	219.88
589.285	249.88
589.736	219.88
590.186	174.88
590.637	215.88
591.088	196.88
591.538	191.88
591.989	176.88
592.439	168.88
592.89	199.88
593.34	168.88
593.791	164.88
594.241	165.88
594.692	158.88
595.142	164.88
595.593	182.88
596.043	183.88
596.493	167.88
596.943	145.88
597.394	165.88
597.844	137.88
598.294	168.88
598.744	184.88
599.195	164.88
599.645	148.88
600.095	144.88
600.545	168.88
600.995	152.88
601.445	165.88
601.895	165.88
602.345	144.88
602.795	157.88
603.245	165.88
603.695	161.88
604.145	168.88
604.594	164.88
605.044	160.88
605.494	153.88
605.944	160.88
606.393	135.88
606.843	157.88
607.293	154.88
607.743	151.88
608.192	142.88
608.642	143.88
609.091	188.88
609.541	156.88
609.99	135.88
610.44	139.88
610.889	135.88
611.339	132.88
611.788	122.88
612.238	144.88
612.687	142.88
613.136	135.88
613.586	139.88
614.035	159.88
614.484	147.88
614.933	162.88
615.383	153.88
615.832	136.88
616.281	144.88
616.73	147.88
617.179	126.88
617.628	147.88
618.077	142.88
618.526	120.88
618.975	146.88
619.424	155.88
619.873	150.88
620.322	141.88
620.771	134.88
621.22	154.88
621.669	148.88
622.118	137.88
622.567	121.88
623.015	137.88
623.464	146.88
623.913	162.88
624.361	126.88
624.81	127.88
625.259	131.88
625.707	115.88
626.156	128.88
626.604	129.88
627.053	137.88
627.501	133.88
627.95	139.88
628.398	148.88
628.847	125.88
629.295	125.88
629.744	114.88
630.192	138.88
630.64	132.88
631.089	142.88
631.537	236.88
631.985	125.88
632.433	134.88
632.881	119.88
633.33	120.88
633.778	135.88
634.226	132.88
634.674	132.88
635.122	148.88
635.57	148.88
636.018	124.88
636.466	134.88
636.914	125.88
637.362	125.88
637.81	125.88
638.258	129.88
638.705	121.88
639.153	133.88
639.601	121.88
640.049	117.88
640.497	114.88
640.944	122.88
641.392	112.88
641.84	109.88
642.287	129.88
642.735	133.88
643.182	123.88
643.63	139.88
644.078	118.88
644.525	149.88
644.973	114.88
645.42	133.88
645.867	133.88
646.315	120.88
646.762	136.88
647.21	114.88
647.657	130.88
648.104	110.88
648.551	132.88
648.999	126.88
649.446	128.88
649.893	132.88
650.34	115.88
650.787	128.88
651.234	115.88
651.682	136.88
652.129	128.88
652.576	153.88
653.023	134.88
653.47	149.88
653.917	135.88
654.363	134.88
654.81	151.88
655.257	132.88
655.704	137.88
656.151	140.88
656.598	145.88
657.044	127.88
657.491	146.88
657.938	124.88
658.385	130.88
658.831	125.88
659.278	115.88
659.724	135.88
660.171	119.88
660.618	125.88
661.064	111.88
661.511	117.88
661.957	104.88
662.404	98.88
662.85	145.88
663.296	133.88
663.743	135.88
664.189	119.88
664.635	114.88
665.082	128.88
665.528	110.88
665.974	138.88
666.42	122.88
666.867	126.88
667.313	123.88
667.759	129.88
668.205	108.88
668.651	114.88
669.097	100.88
669.543	137.88
669.989	131.88
670.435	133.88
670.881	111.88
671.327	103.88
671.773	122.88
672.219	114.88
672.665	110.88
673.11	119.88
673.556	79.88
674.002	110.88
674.448	118.88
674.893	87.88
675.339	110.88
675.785	98.88
676.23	111.88
676.676	110.88
677.122	110.88
677.567	91.88
678.013	116.88
678.458	97.88
678.904	101.88
679.349	97.88
679.794	96.88
680.24	133.88
680.685	101.88
681.131	104.88
681.576	109.88
682.021	96.88
682.466	90.88
682.912	103.88
683.357	101.88
683.802	103.88
684.247	103.88
684.692	94.88
685.137	97.88
685.583	107.88
686.028	132.88
686.473	110.88
686.918	94.88
687.363	109.88
687.807	104.88
688.252	110.88
688.697	126.88
689.142	114.88
689.587	126.88
690.032	118.88
690.477	104.88
690.921	138.88
691.366	112.88
691.811	118.88
692.255	121.88
692.7	134.88
693.145	132.88
693.589	119.88
694.034	124.88
694.478	123.88
694.923	129.88
695.367	121.88
695.812	121.88
696.256	122.88
696.701	114.88
697.145	116.88
697.59	151.88
698.034	131.88
698.478	123.88
698.922	133.88
699.367	144.88
699.811	127.88
700.255	145.88
700.699	143.88
701.143	141.88
701.588	142.88
702.032	144.88
702.476	166.88
702.92	156.88
703.364	148.88
703.808	141.88
704.252	165.88
704.696	154.88
705.14	150.88
705.584	162.88
706.027	167.88
706.471	171.88
706.915	160.88
707.359	169.88
707.803	160.88
708.246	157.88
708.69	155.88
709.134	171.88
709.577	183.88
710.021	175.88
710.465	185.88
710.908	190.88
711.352	203.88
711.795	199.88
712.239	221.88
712.682	228.88
713.126	232.88
713.569	250.88
714.012	231.88
714.456	243.88
714.899	274.88
715.342	268.88
715.786	254.88
716.229	269.88
716.672	264.88
717.115	252.88
717.558	260.88
718.002	280.88
718.445	300.88
718.888	292.88
719.331	278.88
719.774	296.88
720.217	318.88
720.66	349.88
721.103	320.88
721.546	359.88
721.989	354.88
722.432	358.88
722.874	374.88
723.317	392.88
723.76	431.88
724.203	398.88
724.645	398.88
725.088	421.88
725.531	440.88
725.974	447.88
726.416	449.88
726.859	474.88
727.301	502.88
727.744	497.88
728.187	518.88
728.629	540.88
729.071	570.88
729.514	566.88
729.956	569.88
730.399	585.88
730.841	614.88
731.283	622.88
731.726	618.88
732.168	637.88
732.61	642.88
733.053	682.88
733.495	660.88
733.937	699.88
734.379	735.88
734.821	730.88
735.263	746.88
735.705	769.88
736.148	756.88
736.59	793.88
737.032	749.88
737.474	771.88
737.916	776.88
738.357	835.88
738.799	839.88
739.241	835.88
739.683	862.88
740.125	897.88
740.567	878.88
741.008	887.88
741.45	938.88
741.892	970.88
742.334	948.88
742.775	978.88
743.217	955.88
743.658	962.88
744.1	954.88
744.542	974.88
744.983	1020.88
745.425	1019.88
745.866	1012.88
746.307	1004.88
746.749	975.88
747.19	997.88
747.632	1035.88
748.073	1046.88
748.514	1011.88
748.956	1040.88
749.397	1052.88
749.838	1000.88
750.279	1016.88
750.72	1035.88
751.162	1007.88
751.603	1002.88
752.044	1002.88
752.485	1008.88
752.926	1058.88
753.367	1001.88
753.808	996.88
754.249	987.88
754.69	982.88
755.131	1037.88
755.572	1082.88
756.013	1066.88
756.453	1085.88
756.894	1114.88
757.335	1168.88
757.776	1160.88
758.216	1112.88
758.657	1156.88
759.098	1176.88
759.538	1200.88
759.979	1209.88
760.42	1152.88
760.86	1151.88
761.301	1172.88
761.741	1124.88
762.182	1166.88
762.622	1171.88
763.063	1157.88
763.503	1199.88
763.943	1105.88
