Data from air1s_HRD10391_14-14-23-951.txt Node
Date: Thu May 02 14:14:23 EDT 2019
User: DAQUser
Spectrometer: HR+D1039
Trigger mode: 0
Integration Time (sec): 1.000000E0
Scans to average: 1
Electric dark correction enabled: true
Nonlinearity correction enabled: false
Boxcar width: 0
XAxis mode: Wavelengths
Number of Pixels in Spectrum: 2048
>>>>>Begin Spectral Data<<<<<
187.836	-38.88
188.309	-38.88
188.782	-38.88
189.255	-27.88
189.728	-30.88
190.201	7.12
190.674	-4.88
191.147	-17.88
191.619	-15.88
192.092	-5.88
192.565	21.12
193.038	-7.88
193.511	1.12
193.984	18.12
194.456	8.12
194.929	19.12
195.402	50.12
195.874	25.12
196.347	32.12
196.82	28.12
197.292	49.12
197.765	44.12
198.237	59.12
198.71	50.12
199.182	42.12
199.655	57.12
200.127	72.12
200.6	53.12
201.072	65.12
201.544	91.12
202.017	72.12
202.489	78.12
202.961	61.12
203.433	78.12
203.906	53.12
204.378	68.12
204.85	72.12
205.322	66.12
205.794	90.12
206.266	110.12
206.739	77.12
207.211	81.12
207.683	87.12
208.155	83.12
208.627	77.12
209.099	95.12
209.57	85.12
210.042	77.12
210.514	83.12
210.986	93.12
211.458	83.12
211.93	81.12
212.402	66.12
212.873	71.12
213.345	58.12
213.817	69.12
214.288	87.12
214.76	97.12
215.232	85.12
215.703	74.12
216.175	76.12
216.646	71.12
217.118	106.12
217.589	62.12
218.061	69.12
218.532	79.12
219.004	60.12
219.475	57.12
219.946	72.12
220.418	95.12
220.889	80.12
221.36	78.12
221.832	60.12
222.303	70.12
222.774	81.12
223.245	90.12
223.717	92.12
224.188	76.12
224.659	85.12
225.13	70.12
225.601	72.12
226.072	76.12
226.543	77.12
227.014	77.12
227.485	68.12
227.956	93.12
228.427	76.12
228.898	69.12
229.369	72.12
229.839	65.12
230.31	76.12
230.781	76.12
231.252	79.12
231.722	78.12
232.193	104.12
232.664	72.12
233.135	89.12
233.605	93.12
234.076	100.12
234.546	86.12
235.017	70.12
235.487	73.12
235.958	76.12
236.428	77.12
236.899	74.12
237.369	64.12
237.84	122.12
238.31	92.12
238.78	90.12
239.251	75.12
239.721	72.12
240.191	71.12
240.662	82.12
241.132	58.12
241.602	76.12
242.072	80.12
242.542	70.12
243.013	67.12
243.483	63.12
243.953	97.12
244.423	98.12
244.893	79.12
245.363	83.12
245.833	103.12
246.303	79.12
246.773	83.12
247.243	69.12
247.712	66.12
248.182	82.12
248.652	64.12
249.122	86.12
249.592	82.12
250.061	65.12
250.531	79.12
251.001	72.12
251.471	75.12
251.94	74.12
252.41	66.12
252.879	92.12
253.349	82.12
253.818	81.12
254.288	64.12
254.757	85.12
255.227	77.12
255.696	75.12
256.166	62.12
256.635	85.12
257.105	88.12
257.574	94.12
258.043	88.12
258.513	91.12
258.982	78.12
259.451	66.12
259.92	82.12
260.389	58.12
260.859	80.12
261.328	73.12
261.797	77.12
262.266	61.12
262.735	56.12
263.204	109.12
263.673	73.12
264.142	85.12
264.611	79.12
265.08	75.12
265.549	84.12
266.018	80.12
266.487	82.12
266.955	72.12
267.424	78.12
267.893	78.12
268.362	81.12
268.83	82.12
269.299	68.12
269.768	86.12
270.236	62.12
270.705	73.12
271.174	74.12
271.642	71.12
272.111	80.12
272.579	75.12
273.048	73.12
273.516	66.12
273.985	62.12
274.453	77.12
274.922	80.12
275.39	92.12
275.858	81.12
276.327	64.12
276.795	71.12
277.263	69.12
277.731	74.12
278.2	63.12
278.668	85.12
279.136	70.12
279.604	76.12
280.072	73.12
280.54	67.12
281.008	64.12
281.477	63.12
281.945	69.12
282.413	76.12
282.881	74.12
283.348	88.12
283.816	73.12
284.284	85.12
284.752	60.12
285.22	68.12
285.688	73.12
286.156	74.12
286.623	77.12
287.091	58.12
287.559	68.12
288.026	70.12
288.494	88.12
288.962	90.12
289.429	68.12
289.897	83.12
290.364	93.12
290.832	65.12
291.3	68.12
291.767	90.12
292.234	89.12
292.702	93.12
293.169	75.12
293.637	94.12
294.104	92.12
294.571	91.12
295.039	108.12
295.506	105.12
295.973	89.12
296.44	93.12
296.908	72.12
297.375	68.12
297.842	81.12
298.309	81.12
298.776	83.12
299.243	72.12
299.71	81.12
300.177	85.12
300.644	93.12
301.111	78.12
301.578	85.12
302.045	98.12
302.512	88.12
302.979	84.12
303.446	90.12
303.913	68.12
304.379	79.12
304.846	98.12
305.313	118.12
305.78	89.12
306.246	89.12
306.713	97.12
307.18	103.12
307.646	98.12
308.113	99.12
308.579	115.12
309.046	92.12
309.512	106.12
309.979	119.12
310.445	139.12
310.912	98.12
311.378	99.12
311.845	143.12
312.311	133.12
312.777	123.12
313.244	122.12
313.71	124.12
314.176	170.12
314.642	154.12
315.109	124.12
315.575	90.12
316.041	92.12
316.507	99.12
316.973	62.12
317.439	90.12
317.905	60.12
318.371	106.12
318.837	82.12
319.303	66.12
319.769	95.12
320.235	81.12
320.701	87.12
321.167	90.12
321.633	88.12
322.099	83.12
322.564	80.12
323.03	106.12
323.496	92.12
323.962	68.12
324.427	88.12
324.893	108.12
325.359	82.12
325.824	96.12
326.29	99.12
326.755	111.12
327.221	105.12
327.686	88.12
328.152	90.12
328.617	111.12
329.083	111.12
329.548	90.12
330.014	110.12
330.479	91.12
330.944	101.12
331.41	110.12
331.875	144.12
332.34	148.12
332.805	158.12
333.271	138.12
333.736	159.12
334.201	160.12
334.666	178.12
335.131	228.12
335.596	249.12
336.061	219.12
336.526	122.12
336.991	100.12
337.456	100.12
337.921	77.12
338.386	99.12
338.851	89.12
339.316	85.12
339.781	69.12
340.246	76.12
340.711	82.12
341.175	75.12
341.64	94.12
342.105	84.12
342.569	90.12
343.034	68.12
343.499	75.12
343.963	126.12
344.428	81.12
344.893	99.12
345.357	81.12
345.822	90.12
346.286	96.12
346.751	128.12
347.215	108.12
347.679	107.12
348.144	107.12
348.608	113.12
349.073	104.12
349.537	115.12
350.001	139.12
350.465	136.12
350.93	160.12
351.394	171.12
351.858	202.12
352.322	224.12
352.786	205.12
353.25	194.12
353.715	184.12
354.179	180.12
354.643	172.12
355.107	185.12
355.571	190.12
356.035	211.12
356.498	204.12
356.962	123.12
357.426	94.12
357.89	73.12
358.354	76.12
358.818	79.12
359.281	82.12
359.745	69.12
360.209	82.12
360.673	92.12
361.136	61.12
361.6	79.12
362.064	88.12
362.527	61.12
362.991	94.12
363.454	89.12
363.918	90.12
364.381	94.12
364.845	84.12
365.308	109.12
365.772	83.12
366.235	86.12
366.698	118.12
367.162	102.12
367.625	103.12
368.088	101.12
368.552	112.12
369.015	119.12
369.478	115.12
369.941	140.12
370.404	114.12
370.867	108.12
371.331	105.12
371.794	118.12
372.257	118.12
372.72	100.12
373.183	112.12
373.646	141.12
374.109	138.12
374.572	124.12
375.035	122.12
375.497	184.12
375.96	130.12
376.423	142.12
376.886	122.12
377.349	132.12
377.811	117.12
378.274	121.12
378.737	164.12
379.199	143.12
379.662	125.12
380.125	97.12
380.587	89.12
381.05	85.12
381.512	97.12
381.975	96.12
382.437	115.12
382.9	87.12
383.362	125.12
383.825	141.12
384.287	116.12
384.75	148.12
385.212	160.12
385.674	181.12
386.136	204.12
386.599	191.12
387.061	208.12
387.523	200.12
387.985	219.12
388.447	196.12
388.91	208.12
389.372	178.12
389.834	198.12
390.296	214.12
390.758	125.12
391.22	103.12
391.682	108.12
392.144	98.12
392.606	107.12
393.068	102.12
393.529	98.12
393.991	113.12
394.453	106.12
394.915	92.12
395.377	121.12
395.838	93.12
396.3	126.12
396.762	123.12
397.224	118.12
397.685	103.12
398.147	101.12
398.608	124.12
399.07	96.12
399.531	90.12
399.993	100.12
400.454	91.12
400.916	89.12
401.377	96.12
401.839	111.12
402.3	117.12
402.762	98.12
403.223	112.12
403.684	146.12
404.145	118.12
404.607	97.12
405.068	95.12
405.529	106.12
405.99	84.12
406.451	96.12
406.913	98.12
407.374	78.12
407.835	85.12
408.296	100.12
408.757	95.12
409.218	108.12
409.679	90.12
410.14	124.12
410.601	96.12
411.062	95.12
411.522	96.12
411.983	91.12
412.444	114.12
412.905	100.12
413.366	98.12
413.826	106.12
414.287	102.12
414.748	88.12
415.208	104.12
415.669	95.12
416.13	112.12
416.59	96.12
417.051	132.12
417.511	125.12
417.972	101.12
418.432	109.12
418.893	102.12
419.353	116.12
419.814	105.12
420.274	111.12
420.734	110.12
421.195	135.12
421.655	126.12
422.115	149.12
422.576	180.12
423.036	150.12
423.496	158.12
423.956	140.12
424.416	150.12
424.876	131.12
425.336	156.12
425.797	162.12
426.257	132.12
426.717	130.12
427.177	124.12
427.637	104.12
428.097	84.12
428.556	115.12
429.016	93.12
429.476	106.12
429.936	99.12
430.396	102.12
430.856	109.12
431.315	117.12
431.775	88.12
432.235	92.12
432.694	98.12
433.154	105.12
433.614	85.12
434.073	97.12
434.533	76.12
434.993	84.12
435.452	98.12
435.912	78.12
436.371	81.12
436.83	95.12
437.29	91.12
437.749	82.12
438.209	87.12
438.668	103.12
439.127	96.12
439.587	90.12
440.046	94.12
440.505	74.12
440.964	86.12
441.424	81.12
441.883	84.12
442.342	86.12
442.801	87.12
443.26	98.12
443.719	94.12
444.178	93.12
444.637	104.12
445.096	71.12
445.555	111.12
446.014	107.12
446.473	97.12
446.932	92.12
447.391	79.12
447.849	121.12
448.308	118.12
448.767	100.12
449.226	97.12
449.685	91.12
450.143	70.12
450.602	90.12
451.061	82.12
451.519	108.12
451.978	91.12
452.436	103.12
452.895	92.12
453.353	99.12
453.812	91.12
454.27	81.12
454.729	82.12
455.187	94.12
455.646	74.12
456.104	87.12
456.562	85.12
457.021	90.12
457.479	87.12
457.937	95.12
458.395	108.12
458.854	112.12
459.312	90.12
459.77	100.12
460.228	80.12
460.686	92.12
461.144	99.12
461.602	102.12
462.06	114.12
462.518	111.12
462.976	101.12
463.434	83.12
463.892	104.12
464.35	87.12
464.808	96.12
465.266	115.12
465.724	108.12
466.181	112.12
466.639	107.12
467.097	95.12
467.555	113.12
468.012	80.12
468.47	86.12
468.928	107.12
469.385	102.12
469.843	77.12
470.3	105.12
470.758	101.12
471.215	84.12
471.673	103.12
472.13	85.12
472.588	82.12
473.045	79.12
473.503	96.12
473.96	96.12
474.417	111.12
474.875	114.12
475.332	98.12
475.789	103.12
476.246	119.12
476.704	102.12
477.161	96.12
477.618	110.12
478.075	116.12
478.532	104.12
478.989	123.12
479.446	92.12
479.903	105.12
480.36	95.12
480.817	114.12
481.274	86.12
481.731	85.12
482.188	102.12
482.645	125.12
483.102	111.12
483.558	107.12
484.015	99.12
484.472	114.12
484.929	103.12
485.385	118.12
485.842	122.12
486.299	115.12
486.755	119.12
487.212	109.12
487.668	123.12
488.125	115.12
488.582	92.12
489.038	86.12
489.494	111.12
489.951	98.12
490.407	94.12
490.864	108.12
491.32	91.12
491.776	109.12
492.233	98.12
492.689	103.12
493.145	121.12
493.602	106.12
494.058	119.12
494.514	107.12
494.97	107.12
495.426	105.12
495.882	101.12
496.338	122.12
496.794	106.12
497.251	130.12
497.707	109.12
498.163	107.12
498.618	110.12
499.074	103.12
499.53	112.12
499.986	115.12
500.442	110.12
500.898	118.12
501.354	106.12
501.809	115.12
502.265	110.12
502.721	106.12
503.177	106.12
503.632	117.12
504.088	111.12
504.543	110.12
504.999	122.12
505.455	118.12
505.91	126.12
506.366	123.12
506.821	110.12
507.277	132.12
507.732	118.12
508.187	106.12
508.643	114.12
509.098	99.12
509.553	125.12
510.009	118.12
510.464	134.12
510.919	149.12
511.375	134.12
511.83	122.12
512.285	147.12
512.74	128.12
513.195	136.12
513.65	122.12
514.105	111.12
514.56	115.12
515.015	117.12
515.47	102.12
515.925	121.12
516.38	130.12
516.835	127.12
517.29	138.12
517.745	128.12
518.2	134.12
518.655	134.12
519.109	133.12
519.564	144.12
520.019	162.12
520.474	124.12
520.928	156.12
521.383	132.12
521.838	143.12
522.292	128.12
522.747	121.12
523.201	124.12
523.656	135.12
524.11	139.12
524.565	140.12
525.019	148.12
525.474	140.12
525.928	145.12
526.382	149.12
526.837	125.12
527.291	136.12
527.745	134.12
528.2	118.12
528.654	163.12
529.108	150.12
529.562	152.12
530.016	144.12
530.47	142.12
530.925	146.12
531.379	131.12
531.833	138.12
532.287	144.12
532.741	146.12
533.195	135.12
533.649	133.12
534.103	134.12
534.556	145.12
535.01	139.12
535.464	150.12
535.918	150.12
536.372	142.12
536.826	126.12
537.279	139.12
537.733	136.12
538.187	144.12
538.64	140.12
539.094	173.12
539.548	163.12
540.001	153.12
540.455	141.12
540.908	122.12
541.362	149.12
541.815	157.12
542.269	150.12
542.722	161.12
543.175	176.12
543.629	168.12
544.082	187.12
544.536	184.12
544.989	197.12
545.442	172.12
545.895	152.12
546.349	170.12
546.802	173.12
547.255	161.12
547.708	128.12
548.161	158.12
548.614	151.12
549.067	140.12
549.52	150.12
549.973	140.12
550.426	147.12
550.879	164.12
551.332	147.12
551.785	153.12
552.238	162.12
552.691	156.12
553.144	157.12
553.596	135.12
554.049	148.12
554.502	148.12
554.955	161.12
555.407	145.12
555.86	136.12
556.313	157.12
556.765	156.12
557.218	139.12
557.67	145.12
558.123	168.12
558.576	157.12
559.028	144.12
559.48	133.12
559.933	159.12
560.385	190.12
560.838	178.12
561.29	174.12
561.742	168.12
562.195	151.12
562.647	150.12
563.099	152.12
563.551	173.12
564.004	137.12
564.456	175.12
564.908	181.12
565.36	176.12
565.812	176.12
566.264	201.12
566.716	180.12
567.168	180.12
567.62	199.12
568.072	168.12
568.524	173.12
568.976	187.12
569.428	176.12
569.88	178.12
570.332	172.12
570.784	172.12
571.235	173.12
571.687	173.12
572.139	172.12
572.59	157.12
573.042	145.12
573.494	163.12
573.945	159.12
574.397	176.12
574.849	193.12
575.3	184.12
575.752	180.12
576.203	168.12
576.655	181.12
577.106	183.12
577.557	192.12
578.009	197.12
578.46	179.12
578.912	150.12
579.363	153.12
579.814	170.12
580.265	153.12
580.717	158.12
581.168	156.12
581.619	142.12
582.07	149.12
582.521	183.12
582.972	175.12
583.423	165.12
583.875	174.12
584.326	173.12
584.777	163.12
585.227	179.12
585.678	190.12
586.129	181.12
586.58	198.12
587.031	222.12
587.482	242.12
587.933	232.12
588.384	221.12
588.834	238.12
589.285	270.12
589.736	220.12
590.186	210.12
590.637	221.12
591.088	215.12
591.538	193.12
591.989	191.12
592.439	179.12
592.89	205.12
593.34	170.12
593.791	184.12
594.241	171.12
594.692	153.12
595.142	191.12
595.593	148.12
596.043	174.12
596.493	179.12
596.943	163.12
597.394	159.12
597.844	158.12
598.294	170.12
598.744	176.12
599.195	179.12
599.645	144.12
600.095	168.12
600.545	176.12
600.995	161.12
601.445	141.12
601.895	159.12
602.345	160.12
602.795	152.12
603.245	168.12
603.695	164.12
604.145	154.12
604.594	170.12
605.044	162.12
605.494	121.12
605.944	151.12
606.393	132.12
606.843	148.12
607.293	141.12
607.743	140.12
608.192	153.12
608.642	156.12
609.091	168.12
609.541	176.12
609.99	149.12
610.44	156.12
610.889	134.12
611.339	154.12
611.788	126.12
612.238	173.12
612.687	148.12
613.136	160.12
613.586	148.12
614.035	175.12
614.484	159.12
614.933	177.12
615.383	173.12
615.832	142.12
616.281	111.12
616.73	154.12
617.179	141.12
617.628	134.12
618.077	150.12
618.526	144.12
618.975	137.12
619.424	130.12
619.873	143.12
620.322	136.12
620.771	144.12
621.22	139.12
621.669	123.12
622.118	127.12
622.567	135.12
623.015	141.12
623.464	138.12
623.913	140.12
624.361	135.12
624.81	146.12
625.259	142.12
625.707	137.12
626.156	125.12
626.604	146.12
627.053	136.12
627.501	137.12
627.95	133.12
628.398	138.12
628.847	151.12
629.295	142.12
629.744	138.12
630.192	148.12
630.64	141.12
631.089	148.12
631.537	230.12
631.985	125.12
632.433	126.12
632.881	132.12
633.33	121.12
633.778	138.12
634.226	117.12
634.674	124.12
635.122	146.12
635.57	158.12
636.018	128.12
636.466	128.12
636.914	108.12
637.362	106.12
637.81	132.12
638.258	121.12
638.705	139.12
639.153	123.12
639.601	131.12
640.049	124.12
640.497	118.12
640.944	136.12
641.392	135.12
641.84	129.12
642.287	142.12
642.735	123.12
643.182	138.12
643.63	141.12
644.078	131.12
644.525	141.12
644.973	127.12
645.42	133.12
645.867	140.12
646.315	140.12
646.762	125.12
647.21	127.12
647.657	111.12
648.104	136.12
648.551	133.12
648.999	130.12
649.446	125.12
649.893	128.12
650.34	118.12
650.787	123.12
651.234	114.12
651.682	137.12
652.129	125.12
652.576	154.12
653.023	155.12
653.47	151.12
653.917	140.12
654.363	130.12
654.81	144.12
655.257	140.12
655.704	148.12
656.151	157.12
656.598	140.12
657.044	130.12
657.491	135.12
657.938	126.12
658.385	126.12
658.831	118.12
659.278	113.12
659.724	111.12
660.171	113.12
660.618	117.12
661.064	97.12
661.511	102.12
661.957	118.12
662.404	115.12
662.85	154.12
663.296	124.12
663.743	106.12
664.189	106.12
664.635	121.12
665.082	124.12
665.528	117.12
665.974	131.12
666.42	115.12
666.867	122.12
667.313	100.12
667.759	126.12
668.205	107.12
668.651	110.12
669.097	115.12
669.543	128.12
669.989	118.12
670.435	130.12
670.881	129.12
671.327	113.12
671.773	126.12
672.219	98.12
672.665	116.12
673.11	118.12
673.556	110.12
674.002	110.12
674.448	94.12
674.893	108.12
675.339	120.12
675.785	125.12
676.23	111.12
676.676	103.12
677.122	96.12
677.567	110.12
678.013	115.12
678.458	109.12
678.904	102.12
679.349	111.12
679.794	95.12
680.24	110.12
680.685	108.12
681.131	90.12
681.576	100.12
682.021	102.12
682.466	101.12
682.912	95.12
683.357	104.12
683.802	106.12
684.247	98.12
684.692	102.12
685.137	112.12
685.583	124.12
686.028	116.12
686.473	128.12
686.918	114.12
687.363	123.12
687.807	114.12
688.252	104.12
688.697	92.12
689.142	110.12
689.587	102.12
690.032	106.12
690.477	111.12
690.921	130.12
691.366	133.12
691.811	131.12
692.255	130.12
692.7	101.12
693.145	121.12
693.589	99.12
694.034	100.12
694.478	120.12
694.923	112.12
695.367	134.12
695.812	122.12
696.256	135.12
696.701	112.12
697.145	107.12
697.59	138.12
698.034	126.12
698.478	130.12
698.922	133.12
699.367	125.12
699.811	148.12
700.255	133.12
700.699	153.12
701.143	143.12
701.588	142.12
702.032	141.12
702.476	170.12
702.92	165.12
703.364	148.12
703.808	142.12
704.252	141.12
704.696	173.12
705.14	144.12
705.584	174.12
706.027	156.12
706.471	164.12
706.915	155.12
707.359	165.12
707.803	166.12
708.246	163.12
708.69	163.12
709.134	192.12
709.577	196.12
710.021	175.12
710.465	196.12
710.908	211.12
711.352	216.12
711.795	210.12
712.239	226.12
712.682	235.12
713.126	225.12
713.569	242.12
714.012	247.12
714.456	264.12
714.899	233.12
715.342	256.12
715.786	264.12
716.229	254.12
716.672	268.12
717.115	267.12
717.558	300.12
718.002	273.12
718.445	282.12
718.888	280.12
719.331	315.12
719.774	330.12
720.217	341.12
720.66	337.12
721.103	335.12
721.546	384.12
721.989	379.12
722.432	380.12
722.874	380.12
723.317	396.12
723.76	415.12
724.203	399.12
724.645	402.12
725.088	437.12
725.531	452.12
725.974	478.12
726.416	458.12
726.859	471.12
727.301	512.12
727.744	504.12
728.187	538.12
728.629	578.12
729.071	564.12
729.514	546.12
729.956	598.12
730.399	587.12
730.841	636.12
731.283	652.12
731.726	643.12
732.168	666.12
732.61	669.12
733.053	692.12
733.495	676.12
733.937	673.12
734.379	693.12
734.821	720.12
735.263	736.12
735.705	738.12
736.148	743.12
736.59	779.12
737.032	762.12
737.474	796.12
737.916	800.12
738.357	875.12
738.799	850.12
739.241	883.12
739.683	937.12
740.125	949.12
740.567	964.12
741.008	924.12
741.45	940.12
741.892	939.12
742.334	932.12
742.775	983.12
743.217	978.12
743.658	962.12
744.1	996.12
744.542	1024.12
744.983	1020.12
745.425	1004.12
745.866	1005.12
746.307	1013.12
746.749	1022.12
747.19	994.12
747.632	958.12
748.073	982.12
748.514	999.12
748.956	1014.12
749.397	1029.12
749.838	1012.12
750.279	990.12
750.72	1042.12
751.162	1018.12
751.603	1004.12
752.044	997.12
752.485	984.12
752.926	1020.12
753.367	958.12
753.808	1028.12
754.249	978.12
754.69	1018.12
755.131	1004.12
755.572	1046.12
756.013	1074.12
756.453	1089.12
756.894	1119.12
757.335	1155.12
757.776	1130.12
758.216	1149.12
758.657	1166.12
759.098	1196.12
759.538	1182.12
759.979	1195.12
760.42	1243.12
760.86	1268.12
761.301	1214.12
761.741	1150.12
762.182	1155.12
762.622	1192.12
763.063	1166.12
